,Intensity
0,2458
1,2514
2,2401
3,2408
4,2522
5,2432
6,2597
7,2505
8,2488
9,2519
10,2541
11,2549
12,2506
13,2533
14,2449
15,2493
16,2524
17,2424
18,2438
19,2551
